"CanoeWhiteIPA50x - RawData"
"Wavelength nm.","Abs."
190.00,3.580
191.00,3.162
192.00,3.035
193.00,3.242
194.00,3.294
195.00,3.288
196.00,3.417
197.00,3.516
198.00,3.496
199.00,3.594
200.00,3.412
201.00,3.640
202.00,3.605
203.00,3.366
204.00,3.597
205.00,3.647
206.00,3.541
207.00,3.481
208.00,3.426
209.00,3.399
210.00,3.236
211.00,3.125
212.00,2.969
213.00,2.893
214.00,2.774
215.00,2.650
216.00,2.538
217.00,2.428
218.00,2.315
219.00,2.211
220.00,2.109
221.00,2.008
222.00,1.916
223.00,1.823
224.00,1.731
225.00,1.640
226.00,1.553
227.00,1.464
228.00,1.379
229.00,1.301
230.00,1.227
231.00,1.160
232.00,1.101
233.00,1.048
234.00,1.003
235.00,0.964
236.00,0.930
237.00,0.902
238.00,0.878
239.00,0.857
240.00,0.842
241.00,0.829
242.00,0.820
243.00,0.814
244.00,0.810
245.00,0.808
246.00,0.808
247.00,0.808
248.00,0.810
249.00,0.812
250.00,0.815
251.00,0.819
252.00,0.824
253.00,0.828
254.00,0.833
255.00,0.838
256.00,0.842
257.00,0.845
258.00,0.848
259.00,0.849
260.00,0.850
261.00,0.851
262.00,0.851
263.00,0.852
264.00,0.851
265.00,0.850
266.00,0.849
267.00,0.848
268.00,0.846
269.00,0.842
270.00,0.836
271.00,0.829
272.00,0.821
273.00,0.811
274.00,0.801
275.00,0.790
276.00,0.778
277.00,0.766
278.00,0.752
279.00,0.738
280.00,0.723
281.00,0.707
282.00,0.690
283.00,0.672
284.00,0.653
285.00,0.633
286.00,0.614
287.00,0.596
288.00,0.577
289.00,0.557
290.00,0.536
291.00,0.516
292.00,0.497
293.00,0.480
294.00,0.467
295.00,0.454
296.00,0.443
297.00,0.433
298.00,0.424
299.00,0.415
300.00,0.407
301.00,0.400
302.00,0.394
303.00,0.388
304.00,0.383
305.00,0.378
306.00,0.374
307.00,0.370
308.00,0.366
309.00,0.362
310.00,0.359
311.00,0.355
312.00,0.352
313.00,0.349
314.00,0.346
315.00,0.343
316.00,0.341
317.00,0.338
318.00,0.335
319.00,0.331
320.00,0.328
321.00,0.325
322.00,0.321
323.00,0.318
324.00,0.314
325.00,0.310
326.00,0.305
327.00,0.302
328.00,0.297
329.00,0.292
330.00,0.287
331.00,0.282
332.00,0.278
333.00,0.273
334.00,0.268
335.00,0.263
336.00,0.258
337.00,0.253
338.00,0.248
339.00,0.243
340.00,0.238
341.00,0.232
342.00,0.227
343.00,0.222
344.00,0.217
345.00,0.213
346.00,0.208
347.00,0.204
348.00,0.200
349.00,0.195
350.00,0.191
351.00,0.187
352.00,0.183
353.00,0.180
354.00,0.176
355.00,0.173
356.00,0.169
357.00,0.166
358.00,0.163
359.00,0.160
360.00,0.157
361.00,0.154
362.00,0.152
363.00,0.149
364.00,0.147
365.00,0.145
366.00,0.142
367.00,0.140
368.00,0.138
369.00,0.136
370.00,0.134
371.00,0.132
372.00,0.130
373.00,0.128
374.00,0.127
375.00,0.125
376.00,0.123
377.00,0.121
378.00,0.120
379.00,0.118
380.00,0.117
381.00,0.115
382.00,0.114
383.00,0.112
384.00,0.111
385.00,0.110
386.00,0.108
387.00,0.107
388.00,0.106
389.00,0.105
390.00,0.103
391.00,0.102
392.00,0.101
393.00,0.100
394.00,0.099
395.00,0.098
396.00,0.097
397.00,0.096
398.00,0.095
399.00,0.095
400.00,0.094
401.00,0.093
402.00,0.092
403.00,0.091
404.00,0.090
405.00,0.090
406.00,0.089
407.00,0.088
408.00,0.088
409.00,0.087
410.00,0.087
411.00,0.086
412.00,0.085
413.00,0.085
414.00,0.085
415.00,0.084
416.00,0.083
417.00,0.083
418.00,0.083
419.00,0.082
420.00,0.082
421.00,0.082
422.00,0.081
423.00,0.081
424.00,0.081
425.00,0.080
426.00,0.080
427.00,0.080
428.00,0.079
429.00,0.079
430.00,0.079
431.00,0.078
432.00,0.078
433.00,0.078
434.00,0.077
435.00,0.077
436.00,0.077
437.00,0.077
438.00,0.076
439.00,0.076
440.00,0.076
441.00,0.076
442.00,0.075
443.00,0.075
444.00,0.075
445.00,0.075
446.00,0.074
447.00,0.074
448.00,0.074
449.00,0.074
450.00,0.074
451.00,0.073
452.00,0.073
453.00,0.073
454.00,0.073
455.00,0.073
456.00,0.073
457.00,0.072
458.00,0.072
459.00,0.072
460.00,0.072
461.00,0.072
462.00,0.072
463.00,0.071
464.00,0.071
465.00,0.071
466.00,0.071
467.00,0.071
468.00,0.071
469.00,0.070
470.00,0.070
471.00,0.070
472.00,0.070
473.00,0.070
474.00,0.070
475.00,0.070
476.00,0.069
477.00,0.069
478.00,0.069
479.00,0.069
480.00,0.069
481.00,0.069
482.00,0.069
483.00,0.068
484.00,0.068
485.00,0.068
486.00,0.068
487.00,0.068
488.00,0.068
489.00,0.068
490.00,0.068
491.00,0.067
492.00,0.067
493.00,0.067
494.00,0.067
495.00,0.067
496.00,0.067
497.00,0.067
498.00,0.067
499.00,0.066
500.00,0.066
501.00,0.066
502.00,0.066
503.00,0.066
504.00,0.066
505.00,0.066
506.00,0.066
507.00,0.066
508.00,0.065
509.00,0.065
510.00,0.065
511.00,0.065
512.00,0.065
513.00,0.065
514.00,0.065
515.00,0.065
516.00,0.065
517.00,0.065
518.00,0.064
519.00,0.064
520.00,0.064
521.00,0.064
522.00,0.064
523.00,0.064
524.00,0.064
525.00,0.064
526.00,0.064
527.00,0.064
528.00,0.064
529.00,0.064
530.00,0.063
531.00,0.063
532.00,0.063
533.00,0.063
534.00,0.063
535.00,0.063
536.00,0.063
537.00,0.063
538.00,0.063
539.00,0.063
540.00,0.063
541.00,0.063
542.00,0.062
543.00,0.062
544.00,0.062
545.00,0.062
546.00,0.062
547.00,0.062
548.00,0.062
549.00,0.062
550.00,0.062
551.00,0.062
552.00,0.062
553.00,0.062
554.00,0.062
555.00,0.062
556.00,0.061
557.00,0.061
558.00,0.061
559.00,0.061
560.00,0.061
561.00,0.061
562.00,0.061
563.00,0.061
564.00,0.061
565.00,0.061
566.00,0.061
567.00,0.061
568.00,0.061
569.00,0.060
570.00,0.060
571.00,0.060
572.00,0.060
573.00,0.060
574.00,0.060
575.00,0.060
576.00,0.060
577.00,0.060
578.00,0.060
579.00,0.060
580.00,0.060
581.00,0.060
582.00,0.059
583.00,0.059
584.00,0.059
585.00,0.059
586.00,0.059
587.00,0.059
588.00,0.059
589.00,0.059
590.00,0.059
591.00,0.059
592.00,0.059
593.00,0.059
594.00,0.059
595.00,0.059
596.00,0.059
597.00,0.059
598.00,0.059
599.00,0.059
600.00,0.059
601.00,0.059
602.00,0.059
603.00,0.059
604.00,0.059
605.00,0.059
606.00,0.059
607.00,0.058
608.00,0.058
609.00,0.058
610.00,0.058
611.00,0.058
612.00,0.058
613.00,0.058
614.00,0.058
615.00,0.058
616.00,0.058
617.00,0.058
618.00,0.058
619.00,0.058
620.00,0.058
621.00,0.058
622.00,0.058
623.00,0.058
624.00,0.058
625.00,0.058
626.00,0.058
627.00,0.057
628.00,0.057
629.00,0.057
630.00,0.057
631.00,0.057
632.00,0.057
633.00,0.057
634.00,0.057
635.00,0.057
636.00,0.057
637.00,0.057
638.00,0.057
639.00,0.057
640.00,0.057
641.00,0.057
642.00,0.057
643.00,0.057
644.00,0.057
645.00,0.057
646.00,0.057
647.00,0.057
648.00,0.057
649.00,0.057
650.00,0.057
651.00,0.057
652.00,0.057
653.00,0.057
654.00,0.057
655.00,0.057
656.00,0.056
657.00,0.056
658.00,0.056
659.00,0.056
660.00,0.056
661.00,0.056
662.00,0.056
663.00,0.056
664.00,0.056
665.00,0.056
666.00,0.056
667.00,0.056
668.00,0.056
669.00,0.056
670.00,0.056
671.00,0.056
672.00,0.056
673.00,0.056
674.00,0.056
675.00,0.056
676.00,0.056
677.00,0.056
678.00,0.056
679.00,0.056
680.00,0.056
681.00,0.056
682.00,0.056
683.00,0.056
684.00,0.056
685.00,0.056
686.00,0.056
687.00,0.056
688.00,0.056
689.00,0.056
690.00,0.056
691.00,0.056
692.00,0.056
693.00,0.056
694.00,0.056
695.00,0.056
696.00,0.056
697.00,0.056
698.00,0.056
699.00,0.056
700.00,0.056
701.00,0.056
702.00,0.056
703.00,0.056
704.00,0.056
705.00,0.056
706.00,0.056
707.00,0.056
708.00,0.056
709.00,0.056
710.00,0.056
711.00,0.056
712.00,0.056
713.00,0.056
714.00,0.056
715.00,0.057
716.00,0.057
717.00,0.057
718.00,0.057
719.00,0.057
720.00,0.057
721.00,0.058
722.00,0.058
723.00,0.058
724.00,0.058
725.00,0.058
726.00,0.059
727.00,0.059
728.00,0.059
729.00,0.060
730.00,0.060
731.00,0.061
732.00,0.061
733.00,0.062
734.00,0.062
735.00,0.062
736.00,0.063
737.00,0.063
738.00,0.063
739.00,0.063
740.00,0.063
741.00,0.063
742.00,0.063
743.00,0.063
744.00,0.063
745.00,0.063
746.00,0.063
747.00,0.063
748.00,0.063
749.00,0.063
750.00,0.063
751.00,0.063
752.00,0.063
753.00,0.063
754.00,0.063
755.00,0.063
756.00,0.063
757.00,0.063
758.00,0.063
759.00,0.063
760.00,0.063
761.00,0.063
762.00,0.063
763.00,0.063
764.00,0.063
765.00,0.062
766.00,0.062
767.00,0.062
768.00,0.062
769.00,0.062
770.00,0.062
771.00,0.062
772.00,0.062
773.00,0.062
774.00,0.062
775.00,0.062
776.00,0.062
777.00,0.061
778.00,0.061
779.00,0.061
780.00,0.061
781.00,0.061
782.00,0.061
783.00,0.061
784.00,0.061
785.00,0.061
786.00,0.060
787.00,0.060
788.00,0.060
789.00,0.060
790.00,0.060
791.00,0.060
792.00,0.060
793.00,0.060
794.00,0.059
795.00,0.059
796.00,0.059
797.00,0.059
798.00,0.059
799.00,0.059
800.00,0.059
801.00,0.059
802.00,0.058
803.00,0.058
804.00,0.058
805.00,0.058
806.00,0.058
807.00,0.058
808.00,0.058
809.00,0.058
810.00,0.058
811.00,0.058
812.00,0.058
813.00,0.058
814.00,0.058
815.00,0.058
816.00,0.058
817.00,0.058
818.00,0.058
819.00,0.058
820.00,0.059
821.00,0.059
822.00,0.059
823.00,0.059
824.00,0.059
825.00,0.060
826.00,0.060
827.00,0.061
828.00,0.061
829.00,0.062
830.00,0.062
831.00,0.063
832.00,0.063
833.00,0.064
834.00,0.064
835.00,0.064
836.00,0.064
837.00,0.065
838.00,0.065
839.00,0.065
840.00,0.065
841.00,0.065
842.00,0.065
843.00,0.065
844.00,0.065
845.00,0.065
846.00,0.065
847.00,0.065
848.00,0.066
849.00,0.066
850.00,0.066
851.00,0.066
852.00,0.066
853.00,0.066
854.00,0.066
855.00,0.066
856.00,0.066
857.00,0.066
858.00,0.067
859.00,0.067
860.00,0.067
861.00,0.067
862.00,0.067
863.00,0.067
864.00,0.067
865.00,0.067
866.00,0.067
867.00,0.067
868.00,0.067
869.00,0.068
870.00,0.068
871.00,0.068
872.00,0.068
873.00,0.068
874.00,0.068
875.00,0.069
876.00,0.069
877.00,0.069
878.00,0.069
879.00,0.069
880.00,0.070
881.00,0.070
882.00,0.070
883.00,0.070
884.00,0.071
885.00,0.071
886.00,0.071
887.00,0.071
888.00,0.071
889.00,0.072
890.00,0.072
891.00,0.072
892.00,0.072
893.00,0.072
894.00,0.073
895.00,0.073
896.00,0.073
897.00,0.073
898.00,0.074
899.00,0.074
900.00,0.074
