"CanoeNWAmberAle_50x - RawData"
"Wavelength nm.","Abs."
190.00,2.877
191.00,3.369
192.00,3.413
193.00,3.551
194.00,3.484
195.00,3.742
196.00,3.380
197.00,3.723
198.00,3.804
199.00,3.592
200.00,3.791
201.00,3.838
202.00,3.639
203.00,3.601
204.00,3.785
205.00,3.706
206.00,3.872
207.00,3.754
208.00,3.736
209.00,3.620
210.00,3.497
211.00,3.480
212.00,3.366
213.00,3.250
214.00,3.176
215.00,3.064
216.00,2.932
217.00,2.817
218.00,2.722
219.00,2.583
220.00,2.475
221.00,2.353
222.00,2.257
223.00,2.157
224.00,2.052
225.00,1.950
226.00,1.851
227.00,1.751
228.00,1.653
229.00,1.565
230.00,1.482
231.00,1.406
232.00,1.338
233.00,1.278
234.00,1.226
235.00,1.182
236.00,1.142
237.00,1.109
238.00,1.081
239.00,1.058
240.00,1.040
241.00,1.025
242.00,1.016
243.00,1.009
244.00,1.005
245.00,1.003
246.00,1.003
247.00,1.005
248.00,1.007
249.00,1.011
250.00,1.016
251.00,1.022
252.00,1.029
253.00,1.035
254.00,1.042
255.00,1.049
256.00,1.056
257.00,1.063
258.00,1.067
259.00,1.071
260.00,1.075
261.00,1.078
262.00,1.080
263.00,1.083
264.00,1.085
265.00,1.086
266.00,1.087
267.00,1.088
268.00,1.088
269.00,1.086
270.00,1.081
271.00,1.076
272.00,1.070
273.00,1.062
274.00,1.054
275.00,1.045
276.00,1.034
277.00,1.024
278.00,1.012
279.00,0.999
280.00,0.986
281.00,0.971
282.00,0.956
283.00,0.938
284.00,0.920
285.00,0.901
286.00,0.883
287.00,0.865
288.00,0.845
289.00,0.826
290.00,0.805
291.00,0.784
292.00,0.765
293.00,0.749
294.00,0.734
295.00,0.721
296.00,0.708
297.00,0.697
298.00,0.685
299.00,0.674
300.00,0.664
301.00,0.653
302.00,0.643
303.00,0.633
304.00,0.623
305.00,0.612
306.00,0.602
307.00,0.591
308.00,0.581
309.00,0.570
310.00,0.560
311.00,0.549
312.00,0.539
313.00,0.529
314.00,0.519
315.00,0.509
316.00,0.499
317.00,0.489
318.00,0.479
319.00,0.469
320.00,0.459
321.00,0.449
322.00,0.439
323.00,0.430
324.00,0.420
325.00,0.410
326.00,0.400
327.00,0.391
328.00,0.381
329.00,0.371
330.00,0.361
331.00,0.352
332.00,0.343
333.00,0.334
334.00,0.325
335.00,0.317
336.00,0.309
337.00,0.301
338.00,0.292
339.00,0.285
340.00,0.277
341.00,0.268
342.00,0.260
343.00,0.253
344.00,0.246
345.00,0.239
346.00,0.233
347.00,0.226
348.00,0.220
349.00,0.214
350.00,0.208
351.00,0.202
352.00,0.197
353.00,0.192
354.00,0.186
355.00,0.181
356.00,0.177
357.00,0.172
358.00,0.168
359.00,0.163
360.00,0.159
361.00,0.155
362.00,0.151
363.00,0.147
364.00,0.144
365.00,0.140
366.00,0.137
367.00,0.134
368.00,0.131
369.00,0.128
370.00,0.124
371.00,0.121
372.00,0.118
373.00,0.115
374.00,0.113
375.00,0.110
376.00,0.107
377.00,0.104
378.00,0.102
379.00,0.099
380.00,0.096
381.00,0.094
382.00,0.092
383.00,0.089
384.00,0.087
385.00,0.085
386.00,0.083
387.00,0.081
388.00,0.079
389.00,0.077
390.00,0.075
391.00,0.073
392.00,0.071
393.00,0.070
394.00,0.068
395.00,0.066
396.00,0.065
397.00,0.063
398.00,0.062
399.00,0.061
400.00,0.059
401.00,0.058
402.00,0.056
403.00,0.055
404.00,0.054
405.00,0.053
406.00,0.052
407.00,0.051
408.00,0.050
409.00,0.048
410.00,0.047
411.00,0.046
412.00,0.046
413.00,0.045
414.00,0.044
415.00,0.043
416.00,0.042
417.00,0.041
418.00,0.041
419.00,0.040
420.00,0.039
421.00,0.039
422.00,0.038
423.00,0.037
424.00,0.037
425.00,0.036
426.00,0.035
427.00,0.035
428.00,0.034
429.00,0.033
430.00,0.033
431.00,0.032
432.00,0.032
433.00,0.031
434.00,0.031
435.00,0.030
436.00,0.030
437.00,0.029
438.00,0.029
439.00,0.028
440.00,0.028
441.00,0.027
442.00,0.027
443.00,0.026
444.00,0.026
445.00,0.025
446.00,0.025
447.00,0.025
448.00,0.024
449.00,0.024
450.00,0.023
451.00,0.023
452.00,0.023
453.00,0.022
454.00,0.022
455.00,0.021
456.00,0.021
457.00,0.021
458.00,0.020
459.00,0.020
460.00,0.020
461.00,0.019
462.00,0.019
463.00,0.018
464.00,0.018
465.00,0.018
466.00,0.017
467.00,0.017
468.00,0.017
469.00,0.016
470.00,0.016
471.00,0.016
472.00,0.015
473.00,0.015
474.00,0.015
475.00,0.014
476.00,0.014
477.00,0.014
478.00,0.013
479.00,0.013
480.00,0.013
481.00,0.012
482.00,0.012
483.00,0.012
484.00,0.011
485.00,0.011
486.00,0.011
487.00,0.011
488.00,0.010
489.00,0.010
490.00,0.010
491.00,0.009
492.00,0.009
493.00,0.009
494.00,0.009
495.00,0.009
496.00,0.008
497.00,0.008
498.00,0.008
499.00,0.008
500.00,0.007
501.00,0.007
502.00,0.007
503.00,0.007
504.00,0.006
505.00,0.006
506.00,0.006
507.00,0.006
508.00,0.006
509.00,0.005
510.00,0.005
511.00,0.005
512.00,0.005
513.00,0.005
514.00,0.005
515.00,0.004
516.00,0.004
517.00,0.004
518.00,0.004
519.00,0.004
520.00,0.003
521.00,0.003
522.00,0.003
523.00,0.003
524.00,0.003
525.00,0.003
526.00,0.002
527.00,0.002
528.00,0.002
529.00,0.002
530.00,0.002
531.00,0.002
532.00,0.002
533.00,0.001
534.00,0.001
535.00,0.001
536.00,0.001
537.00,0.001
538.00,0.001
539.00,0.001
540.00,0.001
541.00,0.000
542.00,0.000
543.00,0.000
544.00,0.000
545.00,-0.000
546.00,-0.000
547.00,-0.000
548.00,-0.000
549.00,-0.000
550.00,-0.001
551.00,-0.001
552.00,-0.001
553.00,-0.001
554.00,-0.001
555.00,-0.001
556.00,-0.001
557.00,-0.001
558.00,-0.001
559.00,-0.001
560.00,-0.002
561.00,-0.002
562.00,-0.002
563.00,-0.002
564.00,-0.002
565.00,-0.002
566.00,-0.002
567.00,-0.002
568.00,-0.002
569.00,-0.002
570.00,-0.002
571.00,-0.003
572.00,-0.003
573.00,-0.003
574.00,-0.003
575.00,-0.003
576.00,-0.003
577.00,-0.003
578.00,-0.003
579.00,-0.003
580.00,-0.003
581.00,-0.003
582.00,-0.003
583.00,-0.003
584.00,-0.003
585.00,-0.003
586.00,-0.003
587.00,-0.003
588.00,-0.003
589.00,-0.004
590.00,-0.004
591.00,-0.004
592.00,-0.004
593.00,-0.004
594.00,-0.004
595.00,-0.004
596.00,-0.004
597.00,-0.004
598.00,-0.004
599.00,-0.004
600.00,-0.004
601.00,-0.004
602.00,-0.004
603.00,-0.004
604.00,-0.004
605.00,-0.004
606.00,-0.004
607.00,-0.004
608.00,-0.004
609.00,-0.004
610.00,-0.004
611.00,-0.004
612.00,-0.004
613.00,-0.004
614.00,-0.004
615.00,-0.004
616.00,-0.004
617.00,-0.004
618.00,-0.005
619.00,-0.004
620.00,-0.005
621.00,-0.005
622.00,-0.005
623.00,-0.005
624.00,-0.005
625.00,-0.005
626.00,-0.005
627.00,-0.005
628.00,-0.005
629.00,-0.005
630.00,-0.005
631.00,-0.005
632.00,-0.005
633.00,-0.005
634.00,-0.005
635.00,-0.005
636.00,-0.005
637.00,-0.005
638.00,-0.005
639.00,-0.005
640.00,-0.005
641.00,-0.005
642.00,-0.005
643.00,-0.005
644.00,-0.005
645.00,-0.005
646.00,-0.005
647.00,-0.005
648.00,-0.005
649.00,-0.005
650.00,-0.005
651.00,-0.005
652.00,-0.005
653.00,-0.005
654.00,-0.005
655.00,-0.005
656.00,-0.005
657.00,-0.005
658.00,-0.005
659.00,-0.005
660.00,-0.005
661.00,-0.005
662.00,-0.005
663.00,-0.005
664.00,-0.005
665.00,-0.006
666.00,-0.006
667.00,-0.006
668.00,-0.006
669.00,-0.006
670.00,-0.006
671.00,-0.006
672.00,-0.006
673.00,-0.006
674.00,-0.006
675.00,-0.006
676.00,-0.006
677.00,-0.006
678.00,-0.006
679.00,-0.006
680.00,-0.006
681.00,-0.006
682.00,-0.006
683.00,-0.006
684.00,-0.006
685.00,-0.006
686.00,-0.006
687.00,-0.006
688.00,-0.006
689.00,-0.006
690.00,-0.006
691.00,-0.006
692.00,-0.006
693.00,-0.006
694.00,-0.006
695.00,-0.006
696.00,-0.006
697.00,-0.006
698.00,-0.006
699.00,-0.005
700.00,-0.005
701.00,-0.005
702.00,-0.005
703.00,-0.005
704.00,-0.005
705.00,-0.005
706.00,-0.005
707.00,-0.005
708.00,-0.005
709.00,-0.005
710.00,-0.005
711.00,-0.005
712.00,-0.004
713.00,-0.004
714.00,-0.004
715.00,-0.004
716.00,-0.004
717.00,-0.004
718.00,-0.004
719.00,-0.003
720.00,-0.003
721.00,-0.003
722.00,-0.003
723.00,-0.003
724.00,-0.002
725.00,-0.002
726.00,-0.002
727.00,-0.001
728.00,-0.001
729.00,-0.000
730.00,-0.000
731.00,0.000
732.00,0.001
733.00,0.001
734.00,0.002
735.00,0.002
736.00,0.002
737.00,0.003
738.00,0.003
739.00,0.003
740.00,0.003
741.00,0.003
742.00,0.003
743.00,0.003
744.00,0.003
745.00,0.003
746.00,0.003
747.00,0.003
748.00,0.003
749.00,0.003
750.00,0.003
751.00,0.003
752.00,0.003
753.00,0.003
754.00,0.003
755.00,0.003
756.00,0.003
757.00,0.003
758.00,0.003
759.00,0.003
760.00,0.003
761.00,0.003
762.00,0.003
763.00,0.003
764.00,0.003
765.00,0.003
766.00,0.003
767.00,0.003
768.00,0.003
769.00,0.003
770.00,0.003
771.00,0.003
772.00,0.003
773.00,0.002
774.00,0.002
775.00,0.002
776.00,0.002
777.00,0.002
778.00,0.002
779.00,0.002
780.00,0.002
781.00,0.002
782.00,0.002
783.00,0.002
784.00,0.002
785.00,0.002
786.00,0.001
787.00,0.001
788.00,0.001
789.00,0.001
790.00,0.001
791.00,0.001
792.00,0.001
793.00,0.001
794.00,0.001
795.00,0.000
796.00,0.000
797.00,0.000
798.00,0.000
799.00,0.000
800.00,0.000
801.00,-0.000
802.00,-0.000
803.00,-0.000
804.00,-0.000
805.00,-0.000
806.00,-0.000
807.00,-0.000
808.00,-0.000
809.00,-0.000
810.00,-0.000
811.00,-0.000
812.00,-0.000
813.00,-0.000
814.00,-0.000
815.00,-0.000
816.00,-0.000
817.00,0.000
818.00,0.000
819.00,0.000
820.00,0.000
821.00,0.001
822.00,0.001
823.00,0.001
824.00,0.001
825.00,0.002
826.00,0.002
827.00,0.003
828.00,0.003
829.00,0.004
830.00,0.004
831.00,0.005
832.00,0.005
833.00,0.006
834.00,0.006
835.00,0.006
836.00,0.007
837.00,0.007
838.00,0.007
839.00,0.007
840.00,0.007
841.00,0.007
842.00,0.007
843.00,0.007
844.00,0.008
845.00,0.008
846.00,0.008
847.00,0.008
848.00,0.008
849.00,0.008
850.00,0.008
851.00,0.008
852.00,0.009
853.00,0.009
854.00,0.009
855.00,0.009
856.00,0.009
857.00,0.009
858.00,0.009
859.00,0.009
860.00,0.009
861.00,0.010
862.00,0.010
863.00,0.010
864.00,0.010
865.00,0.010
866.00,0.010
867.00,0.010
868.00,0.011
869.00,0.011
870.00,0.011
871.00,0.011
872.00,0.011
873.00,0.011
874.00,0.012
875.00,0.012
876.00,0.012
877.00,0.012
878.00,0.012
879.00,0.013
880.00,0.013
881.00,0.013
882.00,0.013
883.00,0.014
884.00,0.014
885.00,0.014
886.00,0.014
887.00,0.015
888.00,0.015
889.00,0.015
890.00,0.015
891.00,0.016
892.00,0.016
893.00,0.016
894.00,0.016
895.00,0.017
896.00,0.017
897.00,0.017
898.00,0.017
899.00,0.017
900.00,0.018
