"CanoeLager50x - RawData"
"Wavelength nm.","Abs."
190.00,2.984
191.00,3.306
192.00,3.653
193.00,3.495
194.00,3.730
195.00,3.729
196.00,3.754
197.00,3.682
198.00,3.772
199.00,3.649
200.00,3.724
201.00,3.686
202.00,3.703
203.00,3.831
204.00,3.804
205.00,3.839
206.00,3.807
207.00,3.909
208.00,3.605
209.00,3.465
210.00,3.313
211.00,3.183
212.00,3.020
213.00,2.896
214.00,2.767
215.00,2.646
216.00,2.512
217.00,2.401
218.00,2.280
219.00,2.168
220.00,2.056
221.00,1.952
222.00,1.860
223.00,1.764
224.00,1.670
225.00,1.581
226.00,1.495
227.00,1.407
228.00,1.324
229.00,1.247
230.00,1.176
231.00,1.112
232.00,1.056
233.00,1.006
234.00,0.963
235.00,0.926
236.00,0.895
237.00,0.869
238.00,0.847
239.00,0.830
240.00,0.817
241.00,0.807
242.00,0.801
243.00,0.797
244.00,0.795
245.00,0.795
246.00,0.796
247.00,0.799
248.00,0.802
249.00,0.807
250.00,0.811
251.00,0.817
252.00,0.823
253.00,0.829
254.00,0.835
255.00,0.841
256.00,0.846
257.00,0.850
258.00,0.853
259.00,0.854
260.00,0.854
261.00,0.855
262.00,0.855
263.00,0.855
264.00,0.855
265.00,0.853
266.00,0.851
267.00,0.847
268.00,0.843
269.00,0.837
270.00,0.829
271.00,0.821
272.00,0.811
273.00,0.801
274.00,0.788
275.00,0.776
276.00,0.762
277.00,0.747
278.00,0.730
279.00,0.714
280.00,0.697
281.00,0.680
282.00,0.661
283.00,0.641
284.00,0.622
285.00,0.601
286.00,0.582
287.00,0.562
288.00,0.543
289.00,0.523
290.00,0.501
291.00,0.481
292.00,0.463
293.00,0.449
294.00,0.436
295.00,0.425
296.00,0.415
297.00,0.407
298.00,0.398
299.00,0.391
300.00,0.385
301.00,0.379
302.00,0.374
303.00,0.369
304.00,0.365
305.00,0.361
306.00,0.356
307.00,0.352
308.00,0.348
309.00,0.345
310.00,0.341
311.00,0.338
312.00,0.334
313.00,0.331
314.00,0.327
315.00,0.324
316.00,0.321
317.00,0.318
318.00,0.314
319.00,0.310
320.00,0.306
321.00,0.302
322.00,0.298
323.00,0.294
324.00,0.290
325.00,0.285
326.00,0.280
327.00,0.275
328.00,0.270
329.00,0.265
330.00,0.260
331.00,0.254
332.00,0.249
333.00,0.244
334.00,0.238
335.00,0.233
336.00,0.228
337.00,0.223
338.00,0.218
339.00,0.213
340.00,0.208
341.00,0.201
342.00,0.196
343.00,0.191
344.00,0.186
345.00,0.182
346.00,0.177
347.00,0.172
348.00,0.168
349.00,0.164
350.00,0.160
351.00,0.155
352.00,0.152
353.00,0.148
354.00,0.144
355.00,0.141
356.00,0.138
357.00,0.134
358.00,0.131
359.00,0.128
360.00,0.125
361.00,0.123
362.00,0.120
363.00,0.118
364.00,0.115
365.00,0.113
366.00,0.111
367.00,0.109
368.00,0.107
369.00,0.105
370.00,0.102
371.00,0.101
372.00,0.099
373.00,0.097
374.00,0.095
375.00,0.094
376.00,0.092
377.00,0.090
378.00,0.089
379.00,0.087
380.00,0.086
381.00,0.085
382.00,0.083
383.00,0.082
384.00,0.081
385.00,0.080
386.00,0.079
387.00,0.077
388.00,0.076
389.00,0.075
390.00,0.074
391.00,0.073
392.00,0.073
393.00,0.072
394.00,0.071
395.00,0.070
396.00,0.069
397.00,0.069
398.00,0.068
399.00,0.067
400.00,0.066
401.00,0.066
402.00,0.065
403.00,0.065
404.00,0.064
405.00,0.063
406.00,0.063
407.00,0.062
408.00,0.062
409.00,0.062
410.00,0.061
411.00,0.061
412.00,0.060
413.00,0.060
414.00,0.059
415.00,0.059
416.00,0.059
417.00,0.059
418.00,0.058
419.00,0.058
420.00,0.058
421.00,0.057
422.00,0.057
423.00,0.057
424.00,0.057
425.00,0.056
426.00,0.056
427.00,0.056
428.00,0.055
429.00,0.055
430.00,0.055
431.00,0.055
432.00,0.054
433.00,0.054
434.00,0.054
435.00,0.054
436.00,0.054
437.00,0.053
438.00,0.053
439.00,0.053
440.00,0.053
441.00,0.053
442.00,0.052
443.00,0.052
444.00,0.052
445.00,0.052
446.00,0.052
447.00,0.052
448.00,0.051
449.00,0.051
450.00,0.051
451.00,0.051
452.00,0.051
453.00,0.051
454.00,0.051
455.00,0.050
456.00,0.050
457.00,0.050
458.00,0.050
459.00,0.050
460.00,0.050
461.00,0.050
462.00,0.049
463.00,0.049
464.00,0.049
465.00,0.049
466.00,0.049
467.00,0.049
468.00,0.049
469.00,0.049
470.00,0.048
471.00,0.048
472.00,0.048
473.00,0.048
474.00,0.048
475.00,0.048
476.00,0.048
477.00,0.048
478.00,0.047
479.00,0.047
480.00,0.047
481.00,0.047
482.00,0.047
483.00,0.047
484.00,0.047
485.00,0.047
486.00,0.047
487.00,0.046
488.00,0.046
489.00,0.046
490.00,0.046
491.00,0.046
492.00,0.046
493.00,0.046
494.00,0.046
495.00,0.046
496.00,0.045
497.00,0.045
498.00,0.045
499.00,0.045
500.00,0.045
501.00,0.045
502.00,0.045
503.00,0.045
504.00,0.045
505.00,0.045
506.00,0.045
507.00,0.045
508.00,0.044
509.00,0.044
510.00,0.044
511.00,0.044
512.00,0.044
513.00,0.044
514.00,0.044
515.00,0.044
516.00,0.044
517.00,0.044
518.00,0.044
519.00,0.044
520.00,0.044
521.00,0.044
522.00,0.043
523.00,0.043
524.00,0.043
525.00,0.043
526.00,0.043
527.00,0.043
528.00,0.043
529.00,0.043
530.00,0.043
531.00,0.043
532.00,0.043
533.00,0.043
534.00,0.043
535.00,0.043
536.00,0.043
537.00,0.043
538.00,0.042
539.00,0.042
540.00,0.042
541.00,0.042
542.00,0.042
543.00,0.042
544.00,0.042
545.00,0.042
546.00,0.042
547.00,0.042
548.00,0.042
549.00,0.042
550.00,0.042
551.00,0.042
552.00,0.042
553.00,0.042
554.00,0.042
555.00,0.042
556.00,0.042
557.00,0.042
558.00,0.042
559.00,0.041
560.00,0.041
561.00,0.041
562.00,0.041
563.00,0.041
564.00,0.041
565.00,0.041
566.00,0.041
567.00,0.041
568.00,0.041
569.00,0.041
570.00,0.041
571.00,0.041
572.00,0.041
573.00,0.041
574.00,0.041
575.00,0.041
576.00,0.041
577.00,0.041
578.00,0.041
579.00,0.041
580.00,0.041
581.00,0.041
582.00,0.041
583.00,0.041
584.00,0.041
585.00,0.041
586.00,0.041
587.00,0.041
588.00,0.041
589.00,0.041
590.00,0.041
591.00,0.041
592.00,0.041
593.00,0.041
594.00,0.041
595.00,0.041
596.00,0.041
597.00,0.041
598.00,0.041
599.00,0.041
600.00,0.041
601.00,0.041
602.00,0.041
603.00,0.041
604.00,0.041
605.00,0.041
606.00,0.041
607.00,0.041
608.00,0.041
609.00,0.041
610.00,0.041
611.00,0.041
612.00,0.041
613.00,0.041
614.00,0.040
615.00,0.040
616.00,0.040
617.00,0.040
618.00,0.040
619.00,0.040
620.00,0.040
621.00,0.040
622.00,0.040
623.00,0.040
624.00,0.040
625.00,0.040
626.00,0.040
627.00,0.040
628.00,0.040
629.00,0.040
630.00,0.040
631.00,0.040
632.00,0.040
633.00,0.040
634.00,0.040
635.00,0.040
636.00,0.040
637.00,0.040
638.00,0.040
639.00,0.040
640.00,0.040
641.00,0.040
642.00,0.040
643.00,0.040
644.00,0.040
645.00,0.040
646.00,0.040
647.00,0.040
648.00,0.040
649.00,0.040
650.00,0.040
651.00,0.040
652.00,0.040
653.00,0.040
654.00,0.040
655.00,0.040
656.00,0.040
657.00,0.040
658.00,0.040
659.00,0.040
660.00,0.040
661.00,0.040
662.00,0.040
663.00,0.040
664.00,0.040
665.00,0.040
666.00,0.040
667.00,0.040
668.00,0.040
669.00,0.040
670.00,0.040
671.00,0.040
672.00,0.040
673.00,0.040
674.00,0.040
675.00,0.040
676.00,0.040
677.00,0.040
678.00,0.040
679.00,0.040
680.00,0.040
681.00,0.040
682.00,0.040
683.00,0.040
684.00,0.040
685.00,0.040
686.00,0.040
687.00,0.040
688.00,0.040
689.00,0.040
690.00,0.040
691.00,0.040
692.00,0.040
693.00,0.040
694.00,0.040
695.00,0.040
696.00,0.040
697.00,0.040
698.00,0.040
699.00,0.040
700.00,0.040
701.00,0.040
702.00,0.040
703.00,0.040
704.00,0.040
705.00,0.040
706.00,0.041
707.00,0.041
708.00,0.041
709.00,0.041
710.00,0.041
711.00,0.041
712.00,0.041
713.00,0.041
714.00,0.041
715.00,0.042
716.00,0.042
717.00,0.042
718.00,0.042
719.00,0.042
720.00,0.042
721.00,0.043
722.00,0.043
723.00,0.043
724.00,0.043
725.00,0.044
726.00,0.044
727.00,0.044
728.00,0.045
729.00,0.045
730.00,0.045
731.00,0.046
732.00,0.046
733.00,0.047
734.00,0.047
735.00,0.048
736.00,0.048
737.00,0.048
738.00,0.048
739.00,0.049
740.00,0.049
741.00,0.049
742.00,0.049
743.00,0.049
744.00,0.049
745.00,0.049
746.00,0.049
747.00,0.049
748.00,0.049
749.00,0.049
750.00,0.049
751.00,0.049
752.00,0.049
753.00,0.049
754.00,0.049
755.00,0.049
756.00,0.049
757.00,0.049
758.00,0.049
759.00,0.049
760.00,0.049
761.00,0.049
762.00,0.049
763.00,0.049
764.00,0.049
765.00,0.048
766.00,0.048
767.00,0.048
768.00,0.048
769.00,0.048
770.00,0.048
771.00,0.048
772.00,0.048
773.00,0.048
774.00,0.048
775.00,0.048
776.00,0.048
777.00,0.048
778.00,0.048
779.00,0.047
780.00,0.047
781.00,0.047
782.00,0.047
783.00,0.047
784.00,0.047
785.00,0.047
786.00,0.047
787.00,0.047
788.00,0.047
789.00,0.047
790.00,0.047
791.00,0.046
792.00,0.046
793.00,0.046
794.00,0.046
795.00,0.046
796.00,0.046
797.00,0.046
798.00,0.046
799.00,0.046
800.00,0.045
801.00,0.045
802.00,0.045
803.00,0.045
804.00,0.045
805.00,0.045
806.00,0.045
807.00,0.045
808.00,0.045
809.00,0.045
810.00,0.045
811.00,0.045
812.00,0.045
813.00,0.045
814.00,0.045
815.00,0.045
816.00,0.045
817.00,0.045
818.00,0.046
819.00,0.046
820.00,0.046
821.00,0.046
822.00,0.046
823.00,0.046
824.00,0.047
825.00,0.047
826.00,0.048
827.00,0.048
828.00,0.048
829.00,0.049
830.00,0.050
831.00,0.050
832.00,0.051
833.00,0.051
834.00,0.051
835.00,0.052
836.00,0.052
837.00,0.052
838.00,0.052
839.00,0.052
840.00,0.052
841.00,0.052
842.00,0.053
843.00,0.053
844.00,0.053
845.00,0.053
846.00,0.053
847.00,0.053
848.00,0.053
849.00,0.053
850.00,0.053
851.00,0.054
852.00,0.054
853.00,0.054
854.00,0.054
855.00,0.054
856.00,0.054
857.00,0.054
858.00,0.054
859.00,0.054
860.00,0.054
861.00,0.055
862.00,0.055
863.00,0.055
864.00,0.055
865.00,0.055
866.00,0.055
867.00,0.055
868.00,0.055
869.00,0.055
870.00,0.056
871.00,0.056
872.00,0.056
873.00,0.056
874.00,0.056
875.00,0.057
876.00,0.057
877.00,0.057
878.00,0.057
879.00,0.057
880.00,0.058
881.00,0.058
882.00,0.058
883.00,0.058
884.00,0.059
885.00,0.059
886.00,0.059
887.00,0.059
888.00,0.060
889.00,0.060
890.00,0.060
891.00,0.060
892.00,0.060
893.00,0.061
894.00,0.061
895.00,0.061
896.00,0.061
897.00,0.062
898.00,0.062
899.00,0.062
900.00,0.062
