"Cidre_50x - RawData"
"Wavelength nm.","Abs."
190.00,2.704
191.00,2.862
192.00,2.772
193.00,2.684
194.00,2.665
195.00,2.608
196.00,2.557
197.00,2.506
198.00,2.467
199.00,2.417
200.00,2.388
201.00,2.338
202.00,2.276
203.00,2.236
204.00,2.196
205.00,2.124
206.00,2.061
207.00,1.998
208.00,1.936
209.00,1.868
210.00,1.803
211.00,1.744
212.00,1.689
213.00,1.632
214.00,1.579
215.00,1.530
216.00,1.481
217.00,1.430
218.00,1.384
219.00,1.338
220.00,1.292
221.00,1.250
222.00,1.208
223.00,1.167
224.00,1.126
225.00,1.088
226.00,1.050
227.00,1.013
228.00,0.978
229.00,0.945
230.00,0.914
231.00,0.884
232.00,0.856
233.00,0.828
234.00,0.801
235.00,0.775
236.00,0.750
237.00,0.725
238.00,0.700
239.00,0.677
240.00,0.654
241.00,0.631
242.00,0.611
243.00,0.592
244.00,0.574
245.00,0.556
246.00,0.539
247.00,0.523
248.00,0.507
249.00,0.493
250.00,0.480
251.00,0.468
252.00,0.457
253.00,0.447
254.00,0.438
255.00,0.430
256.00,0.423
257.00,0.417
258.00,0.412
259.00,0.408
260.00,0.405
261.00,0.404
262.00,0.402
263.00,0.402
264.00,0.402
265.00,0.403
266.00,0.404
267.00,0.406
268.00,0.408
269.00,0.411
270.00,0.414
271.00,0.417
272.00,0.420
273.00,0.424
274.00,0.427
275.00,0.431
276.00,0.434
277.00,0.437
278.00,0.440
279.00,0.443
280.00,0.445
281.00,0.446
282.00,0.447
283.00,0.446
284.00,0.446
285.00,0.444
286.00,0.441
287.00,0.437
288.00,0.433
289.00,0.428
290.00,0.423
291.00,0.418
292.00,0.413
293.00,0.409
294.00,0.404
295.00,0.400
296.00,0.397
297.00,0.394
298.00,0.391
299.00,0.389
300.00,0.386
301.00,0.383
302.00,0.381
303.00,0.379
304.00,0.378
305.00,0.376
306.00,0.374
307.00,0.373
308.00,0.372
309.00,0.370
310.00,0.369
311.00,0.368
312.00,0.368
313.00,0.367
314.00,0.366
315.00,0.366
316.00,0.365
317.00,0.365
318.00,0.364
319.00,0.362
320.00,0.361
321.00,0.360
322.00,0.359
323.00,0.356
324.00,0.354
325.00,0.352
326.00,0.349
327.00,0.346
328.00,0.342
329.00,0.338
330.00,0.334
331.00,0.329
332.00,0.324
333.00,0.319
334.00,0.314
335.00,0.308
336.00,0.303
337.00,0.297
338.00,0.290
339.00,0.284
340.00,0.278
341.00,0.269
342.00,0.262
343.00,0.256
344.00,0.249
345.00,0.242
346.00,0.235
347.00,0.229
348.00,0.222
349.00,0.216
350.00,0.209
351.00,0.203
352.00,0.197
353.00,0.191
354.00,0.186
355.00,0.181
356.00,0.175
357.00,0.170
358.00,0.165
359.00,0.161
360.00,0.156
361.00,0.152
362.00,0.148
363.00,0.145
364.00,0.142
365.00,0.139
366.00,0.135
367.00,0.133
368.00,0.130
369.00,0.127
370.00,0.125
371.00,0.123
372.00,0.121
373.00,0.119
374.00,0.117
375.00,0.115
376.00,0.114
377.00,0.112
378.00,0.111
379.00,0.109
380.00,0.108
381.00,0.107
382.00,0.105
383.00,0.104
384.00,0.103
385.00,0.102
386.00,0.102
387.00,0.101
388.00,0.100
389.00,0.099
390.00,0.098
391.00,0.098
392.00,0.097
393.00,0.096
394.00,0.096
395.00,0.095
396.00,0.094
397.00,0.094
398.00,0.093
399.00,0.093
400.00,0.092
401.00,0.092
402.00,0.091
403.00,0.091
404.00,0.090
405.00,0.090
406.00,0.089
407.00,0.089
408.00,0.088
409.00,0.088
410.00,0.087
411.00,0.087
412.00,0.086
413.00,0.086
414.00,0.085
415.00,0.085
416.00,0.084
417.00,0.084
418.00,0.084
419.00,0.083
420.00,0.083
421.00,0.083
422.00,0.082
423.00,0.082
424.00,0.082
425.00,0.081
426.00,0.081
427.00,0.080
428.00,0.080
429.00,0.080
430.00,0.079
431.00,0.079
432.00,0.079
433.00,0.078
434.00,0.078
435.00,0.078
436.00,0.077
437.00,0.077
438.00,0.077
439.00,0.077
440.00,0.076
441.00,0.076
442.00,0.076
443.00,0.076
444.00,0.075
445.00,0.075
446.00,0.075
447.00,0.074
448.00,0.074
449.00,0.074
450.00,0.074
451.00,0.074
452.00,0.073
453.00,0.073
454.00,0.073
455.00,0.073
456.00,0.072
457.00,0.072
458.00,0.072
459.00,0.072
460.00,0.072
461.00,0.071
462.00,0.071
463.00,0.071
464.00,0.071
465.00,0.070
466.00,0.070
467.00,0.070
468.00,0.070
469.00,0.070
470.00,0.070
471.00,0.069
472.00,0.069
473.00,0.069
474.00,0.069
475.00,0.069
476.00,0.068
477.00,0.068
478.00,0.068
479.00,0.068
480.00,0.068
481.00,0.068
482.00,0.067
483.00,0.067
484.00,0.067
485.00,0.067
486.00,0.067
487.00,0.067
488.00,0.066
489.00,0.066
490.00,0.066
491.00,0.066
492.00,0.066
493.00,0.066
494.00,0.065
495.00,0.065
496.00,0.065
497.00,0.065
498.00,0.065
499.00,0.065
500.00,0.064
501.00,0.064
502.00,0.064
503.00,0.064
504.00,0.064
505.00,0.064
506.00,0.063
507.00,0.063
508.00,0.063
509.00,0.063
510.00,0.063
511.00,0.063
512.00,0.063
513.00,0.063
514.00,0.062
515.00,0.062
516.00,0.062
517.00,0.062
518.00,0.062
519.00,0.062
520.00,0.062
521.00,0.062
522.00,0.061
523.00,0.061
524.00,0.061
525.00,0.061
526.00,0.061
527.00,0.061
528.00,0.061
529.00,0.061
530.00,0.061
531.00,0.060
532.00,0.060
533.00,0.060
534.00,0.060
535.00,0.060
536.00,0.060
537.00,0.060
538.00,0.060
539.00,0.060
540.00,0.060
541.00,0.059
542.00,0.059
543.00,0.059
544.00,0.059
545.00,0.059
546.00,0.059
547.00,0.059
548.00,0.059
549.00,0.059
550.00,0.059
551.00,0.059
552.00,0.058
553.00,0.058
554.00,0.058
555.00,0.058
556.00,0.058
557.00,0.058
558.00,0.058
559.00,0.058
560.00,0.058
561.00,0.058
562.00,0.058
563.00,0.057
564.00,0.057
565.00,0.057
566.00,0.057
567.00,0.057
568.00,0.057
569.00,0.057
570.00,0.057
571.00,0.057
572.00,0.057
573.00,0.057
574.00,0.057
575.00,0.057
576.00,0.057
577.00,0.056
578.00,0.056
579.00,0.056
580.00,0.056
581.00,0.056
582.00,0.056
583.00,0.056
584.00,0.056
585.00,0.056
586.00,0.056
587.00,0.056
588.00,0.056
589.00,0.056
590.00,0.056
591.00,0.056
592.00,0.056
593.00,0.056
594.00,0.056
595.00,0.056
596.00,0.056
597.00,0.056
598.00,0.056
599.00,0.056
600.00,0.056
601.00,0.056
602.00,0.055
603.00,0.055
604.00,0.055
605.00,0.055
606.00,0.055
607.00,0.055
608.00,0.055
609.00,0.055
610.00,0.055
611.00,0.055
612.00,0.055
613.00,0.055
614.00,0.055
615.00,0.055
616.00,0.055
617.00,0.055
618.00,0.055
619.00,0.055
620.00,0.055
621.00,0.054
622.00,0.054
623.00,0.054
624.00,0.054
625.00,0.054
626.00,0.054
627.00,0.054
628.00,0.054
629.00,0.054
630.00,0.054
631.00,0.054
632.00,0.054
633.00,0.054
634.00,0.054
635.00,0.054
636.00,0.054
637.00,0.054
638.00,0.054
639.00,0.054
640.00,0.054
641.00,0.054
642.00,0.054
643.00,0.054
644.00,0.053
645.00,0.053
646.00,0.053
647.00,0.053
648.00,0.053
649.00,0.053
650.00,0.053
651.00,0.053
652.00,0.053
653.00,0.053
654.00,0.053
655.00,0.053
656.00,0.053
657.00,0.053
658.00,0.053
659.00,0.053
660.00,0.053
661.00,0.053
662.00,0.053
663.00,0.053
664.00,0.053
665.00,0.053
666.00,0.053
667.00,0.053
668.00,0.053
669.00,0.053
670.00,0.053
671.00,0.053
672.00,0.053
673.00,0.053
674.00,0.053
675.00,0.053
676.00,0.053
677.00,0.052
678.00,0.052
679.00,0.052
680.00,0.052
681.00,0.052
682.00,0.052
683.00,0.052
684.00,0.052
685.00,0.052
686.00,0.052
687.00,0.052
688.00,0.052
689.00,0.052
690.00,0.052
691.00,0.052
692.00,0.052
693.00,0.052
694.00,0.052
695.00,0.052
696.00,0.052
697.00,0.052
698.00,0.052
699.00,0.052
700.00,0.052
701.00,0.052
702.00,0.052
703.00,0.052
704.00,0.053
705.00,0.053
706.00,0.053
707.00,0.053
708.00,0.053
709.00,0.053
710.00,0.053
711.00,0.053
712.00,0.053
713.00,0.053
714.00,0.053
715.00,0.053
716.00,0.054
717.00,0.054
718.00,0.054
719.00,0.054
720.00,0.054
721.00,0.055
722.00,0.055
723.00,0.055
724.00,0.055
725.00,0.055
726.00,0.056
727.00,0.056
728.00,0.056
729.00,0.057
730.00,0.057
731.00,0.058
732.00,0.058
733.00,0.059
734.00,0.059
735.00,0.059
736.00,0.060
737.00,0.060
738.00,0.060
739.00,0.060
740.00,0.060
741.00,0.060
742.00,0.060
743.00,0.060
744.00,0.060
745.00,0.060
746.00,0.060
747.00,0.060
748.00,0.060
749.00,0.060
750.00,0.060
751.00,0.060
752.00,0.060
753.00,0.060
754.00,0.060
755.00,0.060
756.00,0.060
757.00,0.060
758.00,0.060
759.00,0.060
760.00,0.060
761.00,0.060
762.00,0.060
763.00,0.060
764.00,0.060
765.00,0.060
766.00,0.060
767.00,0.060
768.00,0.059
769.00,0.059
770.00,0.059
771.00,0.059
772.00,0.059
773.00,0.059
774.00,0.059
775.00,0.059
776.00,0.059
777.00,0.059
778.00,0.059
779.00,0.058
780.00,0.058
781.00,0.058
782.00,0.058
783.00,0.058
784.00,0.058
785.00,0.058
786.00,0.058
787.00,0.058
788.00,0.057
789.00,0.057
790.00,0.057
791.00,0.057
792.00,0.057
793.00,0.057
794.00,0.057
795.00,0.057
796.00,0.056
797.00,0.056
798.00,0.056
799.00,0.056
800.00,0.056
801.00,0.056
802.00,0.056
803.00,0.056
804.00,0.056
805.00,0.056
806.00,0.056
807.00,0.056
808.00,0.056
809.00,0.055
810.00,0.055
811.00,0.056
812.00,0.055
813.00,0.056
814.00,0.056
815.00,0.056
816.00,0.056
817.00,0.056
818.00,0.056
819.00,0.056
820.00,0.056
821.00,0.056
822.00,0.056
823.00,0.057
824.00,0.057
825.00,0.057
826.00,0.058
827.00,0.058
828.00,0.059
829.00,0.059
830.00,0.060
831.00,0.060
832.00,0.061
833.00,0.061
834.00,0.061
835.00,0.062
836.00,0.062
837.00,0.062
838.00,0.062
839.00,0.062
840.00,0.062
841.00,0.062
842.00,0.062
843.00,0.063
844.00,0.063
845.00,0.063
846.00,0.063
847.00,0.063
848.00,0.063
849.00,0.063
850.00,0.063
851.00,0.063
852.00,0.064
853.00,0.064
854.00,0.064
855.00,0.064
856.00,0.064
857.00,0.064
858.00,0.064
859.00,0.064
860.00,0.064
861.00,0.064
862.00,0.064
863.00,0.064
864.00,0.065
865.00,0.065
866.00,0.065
867.00,0.065
868.00,0.065
869.00,0.065
870.00,0.065
871.00,0.065
872.00,0.066
873.00,0.066
874.00,0.066
875.00,0.066
876.00,0.066
877.00,0.066
878.00,0.067
879.00,0.067
880.00,0.067
881.00,0.067
882.00,0.068
883.00,0.068
884.00,0.068
885.00,0.068
886.00,0.069
887.00,0.069
888.00,0.069
889.00,0.069
890.00,0.069
891.00,0.070
892.00,0.070
893.00,0.070
894.00,0.070
895.00,0.070
896.00,0.071
897.00,0.071
898.00,0.071
899.00,0.071
900.00,0.072
