"GrandeAlleeRoseePaleAle - RawData"
"Wavelength nm.","Abs."
190.00,3.093
191.00,3.442
192.00,3.353
193.00,3.802
194.00,3.653
195.00,3.633
196.00,3.849
197.00,3.760
198.00,3.774
199.00,3.513
200.00,3.571
201.00,3.790
202.00,3.703
203.00,3.678
204.00,3.855
205.00,3.822
206.00,3.599
207.00,3.510
208.00,3.593
209.00,3.358
210.00,3.215
211.00,3.077
212.00,2.953
213.00,2.846
214.00,2.720
215.00,2.620
216.00,2.517
217.00,2.401
218.00,2.296
219.00,2.187
220.00,2.083
221.00,1.991
222.00,1.898
223.00,1.806
224.00,1.716
225.00,1.626
226.00,1.538
227.00,1.448
228.00,1.361
229.00,1.282
230.00,1.208
231.00,1.140
232.00,1.079
233.00,1.025
234.00,0.977
235.00,0.938
236.00,0.904
237.00,0.876
238.00,0.853
239.00,0.835
240.00,0.821
241.00,0.810
242.00,0.802
243.00,0.798
244.00,0.795
245.00,0.794
246.00,0.795
247.00,0.796
248.00,0.798
249.00,0.802
250.00,0.805
251.00,0.810
252.00,0.814
253.00,0.819
254.00,0.824
255.00,0.829
256.00,0.834
257.00,0.837
258.00,0.840
259.00,0.842
260.00,0.843
261.00,0.845
262.00,0.847
263.00,0.849
264.00,0.851
265.00,0.852
266.00,0.852
267.00,0.852
268.00,0.852
269.00,0.849
270.00,0.846
271.00,0.841
272.00,0.834
273.00,0.827
274.00,0.818
275.00,0.808
276.00,0.797
277.00,0.786
278.00,0.772
279.00,0.758
280.00,0.744
281.00,0.728
282.00,0.711
283.00,0.692
284.00,0.673
285.00,0.651
286.00,0.632
287.00,0.614
288.00,0.594
289.00,0.574
290.00,0.552
291.00,0.532
292.00,0.513
293.00,0.497
294.00,0.483
295.00,0.470
296.00,0.458
297.00,0.448
298.00,0.438
299.00,0.429
300.00,0.421
301.00,0.413
302.00,0.406
303.00,0.400
304.00,0.395
305.00,0.390
306.00,0.386
307.00,0.381
308.00,0.377
309.00,0.373
310.00,0.370
311.00,0.366
312.00,0.363
313.00,0.360
314.00,0.357
315.00,0.355
316.00,0.352
317.00,0.349
318.00,0.345
319.00,0.342
320.00,0.339
321.00,0.336
322.00,0.332
323.00,0.328
324.00,0.324
325.00,0.320
326.00,0.315
327.00,0.311
328.00,0.306
329.00,0.301
330.00,0.295
331.00,0.290
332.00,0.285
333.00,0.279
334.00,0.274
335.00,0.268
336.00,0.263
337.00,0.257
338.00,0.251
339.00,0.245
340.00,0.240
341.00,0.232
342.00,0.226
343.00,0.221
344.00,0.215
345.00,0.210
346.00,0.204
347.00,0.199
348.00,0.194
349.00,0.189
350.00,0.184
351.00,0.180
352.00,0.175
353.00,0.171
354.00,0.167
355.00,0.163
356.00,0.159
357.00,0.155
358.00,0.151
359.00,0.148
360.00,0.144
361.00,0.141
362.00,0.138
363.00,0.135
364.00,0.133
365.00,0.131
366.00,0.128
367.00,0.126
368.00,0.123
369.00,0.121
370.00,0.119
371.00,0.117
372.00,0.115
373.00,0.113
374.00,0.112
375.00,0.110
376.00,0.108
377.00,0.107
378.00,0.105
379.00,0.104
380.00,0.102
381.00,0.101
382.00,0.100
383.00,0.098
384.00,0.097
385.00,0.096
386.00,0.095
387.00,0.094
388.00,0.093
389.00,0.092
390.00,0.091
391.00,0.090
392.00,0.089
393.00,0.088
394.00,0.088
395.00,0.087
396.00,0.086
397.00,0.086
398.00,0.085
399.00,0.084
400.00,0.084
401.00,0.083
402.00,0.082
403.00,0.082
404.00,0.081
405.00,0.081
406.00,0.080
407.00,0.080
408.00,0.079
409.00,0.079
410.00,0.078
411.00,0.078
412.00,0.077
413.00,0.077
414.00,0.076
415.00,0.076
416.00,0.076
417.00,0.075
418.00,0.075
419.00,0.075
420.00,0.074
421.00,0.074
422.00,0.074
423.00,0.074
424.00,0.073
425.00,0.073
426.00,0.073
427.00,0.072
428.00,0.072
429.00,0.072
430.00,0.072
431.00,0.071
432.00,0.071
433.00,0.071
434.00,0.071
435.00,0.070
436.00,0.070
437.00,0.070
438.00,0.070
439.00,0.070
440.00,0.069
441.00,0.069
442.00,0.069
443.00,0.069
444.00,0.069
445.00,0.068
446.00,0.068
447.00,0.068
448.00,0.068
449.00,0.068
450.00,0.068
451.00,0.067
452.00,0.067
453.00,0.067
454.00,0.067
455.00,0.067
456.00,0.067
457.00,0.067
458.00,0.066
459.00,0.066
460.00,0.066
461.00,0.066
462.00,0.066
463.00,0.066
464.00,0.066
465.00,0.065
466.00,0.065
467.00,0.065
468.00,0.065
469.00,0.065
470.00,0.065
471.00,0.065
472.00,0.064
473.00,0.064
474.00,0.064
475.00,0.064
476.00,0.064
477.00,0.064
478.00,0.064
479.00,0.064
480.00,0.063
481.00,0.063
482.00,0.063
483.00,0.063
484.00,0.063
485.00,0.063
486.00,0.063
487.00,0.063
488.00,0.062
489.00,0.062
490.00,0.062
491.00,0.062
492.00,0.062
493.00,0.062
494.00,0.062
495.00,0.062
496.00,0.061
497.00,0.061
498.00,0.061
499.00,0.061
500.00,0.061
501.00,0.061
502.00,0.061
503.00,0.061
504.00,0.061
505.00,0.061
506.00,0.061
507.00,0.060
508.00,0.060
509.00,0.060
510.00,0.060
511.00,0.060
512.00,0.060
513.00,0.060
514.00,0.060
515.00,0.060
516.00,0.060
517.00,0.060
518.00,0.059
519.00,0.059
520.00,0.059
521.00,0.059
522.00,0.059
523.00,0.059
524.00,0.059
525.00,0.059
526.00,0.059
527.00,0.058
528.00,0.058
529.00,0.058
530.00,0.058
531.00,0.058
532.00,0.058
533.00,0.058
534.00,0.058
535.00,0.058
536.00,0.058
537.00,0.057
538.00,0.057
539.00,0.057
540.00,0.057
541.00,0.057
542.00,0.057
543.00,0.057
544.00,0.057
545.00,0.056
546.00,0.056
547.00,0.056
548.00,0.056
549.00,0.056
550.00,0.056
551.00,0.056
552.00,0.056
553.00,0.056
554.00,0.056
555.00,0.056
556.00,0.056
557.00,0.055
558.00,0.055
559.00,0.055
560.00,0.055
561.00,0.055
562.00,0.055
563.00,0.055
564.00,0.055
565.00,0.055
566.00,0.055
567.00,0.055
568.00,0.055
569.00,0.055
570.00,0.054
571.00,0.054
572.00,0.054
573.00,0.054
574.00,0.054
575.00,0.054
576.00,0.054
577.00,0.054
578.00,0.054
579.00,0.054
580.00,0.054
581.00,0.054
582.00,0.053
583.00,0.053
584.00,0.053
585.00,0.053
586.00,0.053
587.00,0.053
588.00,0.053
589.00,0.053
590.00,0.053
591.00,0.053
592.00,0.053
593.00,0.053
594.00,0.053
595.00,0.053
596.00,0.053
597.00,0.053
598.00,0.053
599.00,0.053
600.00,0.053
601.00,0.053
602.00,0.053
603.00,0.053
604.00,0.053
605.00,0.052
606.00,0.052
607.00,0.052
608.00,0.052
609.00,0.052
610.00,0.052
611.00,0.052
612.00,0.052
613.00,0.052
614.00,0.052
615.00,0.052
616.00,0.052
617.00,0.052
618.00,0.052
619.00,0.052
620.00,0.052
621.00,0.051
622.00,0.051
623.00,0.051
624.00,0.051
625.00,0.051
626.00,0.051
627.00,0.051
628.00,0.051
629.00,0.051
630.00,0.051
631.00,0.051
632.00,0.051
633.00,0.051
634.00,0.051
635.00,0.051
636.00,0.051
637.00,0.051
638.00,0.051
639.00,0.051
640.00,0.051
641.00,0.050
642.00,0.050
643.00,0.050
644.00,0.050
645.00,0.050
646.00,0.050
647.00,0.050
648.00,0.050
649.00,0.050
650.00,0.050
651.00,0.050
652.00,0.050
653.00,0.050
654.00,0.050
655.00,0.050
656.00,0.050
657.00,0.050
658.00,0.050
659.00,0.050
660.00,0.050
661.00,0.050
662.00,0.050
663.00,0.050
664.00,0.050
665.00,0.050
666.00,0.050
667.00,0.050
668.00,0.050
669.00,0.050
670.00,0.050
671.00,0.050
672.00,0.050
673.00,0.050
674.00,0.050
675.00,0.050
676.00,0.050
677.00,0.050
678.00,0.050
679.00,0.050
680.00,0.050
681.00,0.050
682.00,0.050
683.00,0.050
684.00,0.049
685.00,0.050
686.00,0.050
687.00,0.049
688.00,0.049
689.00,0.050
690.00,0.050
691.00,0.050
692.00,0.050
693.00,0.050
694.00,0.049
695.00,0.050
696.00,0.050
697.00,0.050
698.00,0.049
699.00,0.050
700.00,0.050
701.00,0.050
702.00,0.050
703.00,0.050
704.00,0.050
705.00,0.050
706.00,0.050
707.00,0.050
708.00,0.050
709.00,0.050
710.00,0.050
711.00,0.050
712.00,0.050
713.00,0.051
714.00,0.051
715.00,0.051
716.00,0.051
717.00,0.051
718.00,0.051
719.00,0.051
720.00,0.052
721.00,0.052
722.00,0.052
723.00,0.052
724.00,0.053
725.00,0.053
726.00,0.053
727.00,0.053
728.00,0.054
729.00,0.054
730.00,0.055
731.00,0.055
732.00,0.056
733.00,0.056
734.00,0.056
735.00,0.057
736.00,0.057
737.00,0.057
738.00,0.057
739.00,0.058
740.00,0.058
741.00,0.058
742.00,0.058
743.00,0.058
744.00,0.058
745.00,0.058
746.00,0.058
747.00,0.058
748.00,0.058
749.00,0.058
750.00,0.058
751.00,0.058
752.00,0.058
753.00,0.058
754.00,0.058
755.00,0.058
756.00,0.058
757.00,0.058
758.00,0.058
759.00,0.058
760.00,0.058
761.00,0.058
762.00,0.058
763.00,0.058
764.00,0.058
765.00,0.058
766.00,0.057
767.00,0.057
768.00,0.057
769.00,0.057
770.00,0.057
771.00,0.057
772.00,0.057
773.00,0.057
774.00,0.057
775.00,0.057
776.00,0.057
777.00,0.057
778.00,0.057
779.00,0.057
780.00,0.056
781.00,0.056
782.00,0.056
783.00,0.056
784.00,0.056
785.00,0.056
786.00,0.056
787.00,0.056
788.00,0.056
789.00,0.056
790.00,0.055
791.00,0.055
792.00,0.055
793.00,0.055
794.00,0.055
795.00,0.055
796.00,0.055
797.00,0.055
798.00,0.055
799.00,0.054
800.00,0.054
801.00,0.054
802.00,0.054
803.00,0.054
804.00,0.054
805.00,0.054
806.00,0.054
807.00,0.054
808.00,0.054
809.00,0.054
810.00,0.054
811.00,0.054
812.00,0.054
813.00,0.054
814.00,0.054
815.00,0.054
816.00,0.054
817.00,0.054
818.00,0.054
819.00,0.054
820.00,0.055
821.00,0.055
822.00,0.055
823.00,0.055
824.00,0.056
825.00,0.056
826.00,0.056
827.00,0.057
828.00,0.057
829.00,0.058
830.00,0.058
831.00,0.059
832.00,0.059
833.00,0.060
834.00,0.060
835.00,0.060
836.00,0.060
837.00,0.061
838.00,0.061
839.00,0.061
840.00,0.061
841.00,0.061
842.00,0.061
843.00,0.061
844.00,0.062
845.00,0.062
846.00,0.062
847.00,0.062
848.00,0.062
849.00,0.062
850.00,0.062
851.00,0.063
852.00,0.063
853.00,0.063
854.00,0.063
855.00,0.063
856.00,0.063
857.00,0.063
858.00,0.063
859.00,0.063
860.00,0.064
861.00,0.064
862.00,0.064
863.00,0.064
864.00,0.064
865.00,0.064
866.00,0.064
867.00,0.064
868.00,0.064
869.00,0.065
870.00,0.065
871.00,0.065
872.00,0.065
873.00,0.065
874.00,0.066
875.00,0.066
876.00,0.066
877.00,0.066
878.00,0.066
879.00,0.067
880.00,0.067
881.00,0.067
882.00,0.067
883.00,0.067
884.00,0.068
885.00,0.068
886.00,0.068
887.00,0.069
888.00,0.069
889.00,0.069
890.00,0.069
891.00,0.069
892.00,0.070
893.00,0.070
894.00,0.070
895.00,0.070
896.00,0.071
897.00,0.071
898.00,0.071
899.00,0.071
900.00,0.071
