"LTMStickaltFut_50x - RawData"
"Wavelength nm.","Abs."
190.00,3.573
191.00,3.271
192.00,3.858
193.00,3.722
194.00,3.408
195.00,3.767
196.00,3.846
197.00,3.927
198.00,3.649
199.00,3.742
200.00,3.617
201.00,3.777
202.00,3.919
203.00,3.913
204.00,3.868
205.00,3.843
206.00,3.811
207.00,3.781
208.00,3.738
209.00,3.696
210.00,3.781
211.00,3.686
212.00,3.624
213.00,3.616
214.00,3.505
215.00,3.304
216.00,3.276
217.00,3.070
218.00,2.964
219.00,2.821
220.00,2.709
221.00,2.601
222.00,2.484
223.00,2.369
224.00,2.257
225.00,2.154
226.00,2.053
227.00,1.947
228.00,1.845
229.00,1.753
230.00,1.665
231.00,1.584
232.00,1.511
233.00,1.445
234.00,1.387
235.00,1.337
236.00,1.293
237.00,1.255
238.00,1.222
239.00,1.195
240.00,1.173
241.00,1.155
242.00,1.141
243.00,1.133
244.00,1.127
245.00,1.123
246.00,1.122
247.00,1.121
248.00,1.123
249.00,1.126
250.00,1.130
251.00,1.135
252.00,1.139
253.00,1.144
254.00,1.150
255.00,1.155
256.00,1.161
257.00,1.164
258.00,1.167
259.00,1.169
260.00,1.169
261.00,1.170
262.00,1.170
263.00,1.171
264.00,1.171
265.00,1.170
266.00,1.169
267.00,1.167
268.00,1.165
269.00,1.161
270.00,1.156
271.00,1.149
272.00,1.143
273.00,1.137
274.00,1.128
275.00,1.119
276.00,1.109
277.00,1.098
278.00,1.087
279.00,1.074
280.00,1.060
281.00,1.046
282.00,1.030
283.00,1.013
284.00,0.996
285.00,0.976
286.00,0.957
287.00,0.939
288.00,0.920
289.00,0.899
290.00,0.878
291.00,0.856
292.00,0.837
293.00,0.820
294.00,0.805
295.00,0.790
296.00,0.777
297.00,0.764
298.00,0.751
299.00,0.739
300.00,0.727
301.00,0.715
302.00,0.704
303.00,0.693
304.00,0.682
305.00,0.670
306.00,0.660
307.00,0.648
308.00,0.637
309.00,0.626
310.00,0.615
311.00,0.604
312.00,0.594
313.00,0.583
314.00,0.573
315.00,0.563
316.00,0.553
317.00,0.544
318.00,0.534
319.00,0.523
320.00,0.514
321.00,0.503
322.00,0.493
323.00,0.483
324.00,0.474
325.00,0.463
326.00,0.453
327.00,0.444
328.00,0.434
329.00,0.424
330.00,0.413
331.00,0.404
332.00,0.394
333.00,0.385
334.00,0.375
335.00,0.366
336.00,0.357
337.00,0.348
338.00,0.339
339.00,0.331
340.00,0.323
341.00,0.313
342.00,0.304
343.00,0.296
344.00,0.289
345.00,0.281
346.00,0.274
347.00,0.267
348.00,0.260
349.00,0.253
350.00,0.247
351.00,0.240
352.00,0.234
353.00,0.228
354.00,0.223
355.00,0.217
356.00,0.212
357.00,0.206
358.00,0.201
359.00,0.196
360.00,0.191
361.00,0.187
362.00,0.183
363.00,0.178
364.00,0.174
365.00,0.171
366.00,0.167
367.00,0.163
368.00,0.159
369.00,0.156
370.00,0.152
371.00,0.149
372.00,0.146
373.00,0.143
374.00,0.140
375.00,0.137
376.00,0.134
377.00,0.131
378.00,0.128
379.00,0.125
380.00,0.123
381.00,0.120
382.00,0.118
383.00,0.115
384.00,0.113
385.00,0.111
386.00,0.108
387.00,0.106
388.00,0.104
389.00,0.102
390.00,0.100
391.00,0.098
392.00,0.096
393.00,0.094
394.00,0.092
395.00,0.091
396.00,0.089
397.00,0.087
398.00,0.086
399.00,0.084
400.00,0.083
401.00,0.081
402.00,0.080
403.00,0.078
404.00,0.077
405.00,0.075
406.00,0.074
407.00,0.073
408.00,0.072
409.00,0.070
410.00,0.069
411.00,0.068
412.00,0.067
413.00,0.066
414.00,0.065
415.00,0.064
416.00,0.062
417.00,0.062
418.00,0.061
419.00,0.060
420.00,0.059
421.00,0.058
422.00,0.057
423.00,0.056
424.00,0.055
425.00,0.054
426.00,0.054
427.00,0.053
428.00,0.052
429.00,0.051
430.00,0.050
431.00,0.049
432.00,0.049
433.00,0.048
434.00,0.047
435.00,0.046
436.00,0.046
437.00,0.045
438.00,0.044
439.00,0.044
440.00,0.043
441.00,0.042
442.00,0.042
443.00,0.041
444.00,0.040
445.00,0.040
446.00,0.039
447.00,0.039
448.00,0.038
449.00,0.038
450.00,0.037
451.00,0.036
452.00,0.036
453.00,0.035
454.00,0.035
455.00,0.034
456.00,0.034
457.00,0.033
458.00,0.033
459.00,0.032
460.00,0.032
461.00,0.031
462.00,0.031
463.00,0.030
464.00,0.030
465.00,0.029
466.00,0.029
467.00,0.028
468.00,0.028
469.00,0.028
470.00,0.027
471.00,0.027
472.00,0.026
473.00,0.026
474.00,0.025
475.00,0.025
476.00,0.024
477.00,0.024
478.00,0.024
479.00,0.023
480.00,0.023
481.00,0.022
482.00,0.022
483.00,0.022
484.00,0.021
485.00,0.021
486.00,0.021
487.00,0.020
488.00,0.020
489.00,0.019
490.00,0.019
491.00,0.019
492.00,0.018
493.00,0.018
494.00,0.018
495.00,0.018
496.00,0.017
497.00,0.017
498.00,0.017
499.00,0.016
500.00,0.016
501.00,0.016
502.00,0.015
503.00,0.015
504.00,0.015
505.00,0.015
506.00,0.014
507.00,0.014
508.00,0.014
509.00,0.014
510.00,0.013
511.00,0.013
512.00,0.013
513.00,0.013
514.00,0.012
515.00,0.012
516.00,0.012
517.00,0.012
518.00,0.011
519.00,0.011
520.00,0.011
521.00,0.011
522.00,0.011
523.00,0.010
524.00,0.010
525.00,0.010
526.00,0.010
527.00,0.010
528.00,0.009
529.00,0.009
530.00,0.009
531.00,0.009
532.00,0.009
533.00,0.008
534.00,0.008
535.00,0.008
536.00,0.008
537.00,0.008
538.00,0.008
539.00,0.007
540.00,0.007
541.00,0.007
542.00,0.007
543.00,0.007
544.00,0.007
545.00,0.006
546.00,0.006
547.00,0.006
548.00,0.006
549.00,0.006
550.00,0.006
551.00,0.005
552.00,0.005
553.00,0.005
554.00,0.005
555.00,0.005
556.00,0.005
557.00,0.005
558.00,0.005
559.00,0.004
560.00,0.004
561.00,0.004
562.00,0.004
563.00,0.004
564.00,0.004
565.00,0.004
566.00,0.003
567.00,0.003
568.00,0.003
569.00,0.003
570.00,0.003
571.00,0.003
572.00,0.003
573.00,0.003
574.00,0.003
575.00,0.003
576.00,0.002
577.00,0.002
578.00,0.002
579.00,0.002
580.00,0.002
581.00,0.002
582.00,0.002
583.00,0.002
584.00,0.002
585.00,0.002
586.00,0.002
587.00,0.002
588.00,0.001
589.00,0.001
590.00,0.001
591.00,0.001
592.00,0.001
593.00,0.001
594.00,0.001
595.00,0.001
596.00,0.001
597.00,0.001
598.00,0.001
599.00,0.001
600.00,0.001
601.00,0.001
602.00,0.001
603.00,0.001
604.00,0.001
605.00,0.001
606.00,0.001
607.00,0.001
608.00,0.000
609.00,0.000
610.00,0.000
611.00,0.000
612.00,0.000
613.00,0.000
614.00,0.000
615.00,-0.000
616.00,-0.000
617.00,-0.000
618.00,-0.000
619.00,-0.000
620.00,-0.000
621.00,-0.000
622.00,-0.000
623.00,-0.001
624.00,-0.001
625.00,-0.001
626.00,-0.001
627.00,-0.001
628.00,-0.001
629.00,-0.001
630.00,-0.001
631.00,-0.001
632.00,-0.001
633.00,-0.001
634.00,-0.001
635.00,-0.001
636.00,-0.001
637.00,-0.001
638.00,-0.001
639.00,-0.001
640.00,-0.001
641.00,-0.002
642.00,-0.002
643.00,-0.002
644.00,-0.002
645.00,-0.002
646.00,-0.002
647.00,-0.002
648.00,-0.002
649.00,-0.002
650.00,-0.002
651.00,-0.002
652.00,-0.002
653.00,-0.002
654.00,-0.002
655.00,-0.002
656.00,-0.002
657.00,-0.002
658.00,-0.002
659.00,-0.002
660.00,-0.002
661.00,-0.002
662.00,-0.002
663.00,-0.002
664.00,-0.002
665.00,-0.002
666.00,-0.002
667.00,-0.002
668.00,-0.002
669.00,-0.002
670.00,-0.002
671.00,-0.002
672.00,-0.002
673.00,-0.002
674.00,-0.003
675.00,-0.003
676.00,-0.003
677.00,-0.003
678.00,-0.003
679.00,-0.003
680.00,-0.003
681.00,-0.003
682.00,-0.003
683.00,-0.003
684.00,-0.003
685.00,-0.003
686.00,-0.003
687.00,-0.003
688.00,-0.003
689.00,-0.003
690.00,-0.003
691.00,-0.003
692.00,-0.003
693.00,-0.003
694.00,-0.003
695.00,-0.003
696.00,-0.003
697.00,-0.003
698.00,-0.003
699.00,-0.003
700.00,-0.002
701.00,-0.002
702.00,-0.002
703.00,-0.002
704.00,-0.002
705.00,-0.002
706.00,-0.002
707.00,-0.002
708.00,-0.002
709.00,-0.002
710.00,-0.002
711.00,-0.002
712.00,-0.002
713.00,-0.001
714.00,-0.001
715.00,-0.001
716.00,-0.001
717.00,-0.001
718.00,-0.001
719.00,-0.001
720.00,-0.000
721.00,-0.000
722.00,0.000
723.00,0.000
724.00,0.000
725.00,0.001
726.00,0.001
727.00,0.001
728.00,0.002
729.00,0.002
730.00,0.003
731.00,0.003
732.00,0.004
733.00,0.004
734.00,0.004
735.00,0.005
736.00,0.005
737.00,0.005
738.00,0.006
739.00,0.006
740.00,0.006
741.00,0.006
742.00,0.006
743.00,0.006
744.00,0.006
745.00,0.006
746.00,0.006
747.00,0.006
748.00,0.006
749.00,0.006
750.00,0.006
751.00,0.006
752.00,0.006
753.00,0.006
754.00,0.006
755.00,0.006
756.00,0.006
757.00,0.006
758.00,0.006
759.00,0.006
760.00,0.006
761.00,0.006
762.00,0.005
763.00,0.005
764.00,0.005
765.00,0.005
766.00,0.005
767.00,0.005
768.00,0.005
769.00,0.005
770.00,0.005
771.00,0.005
772.00,0.005
773.00,0.005
774.00,0.005
775.00,0.005
776.00,0.005
777.00,0.005
778.00,0.004
779.00,0.004
780.00,0.004
781.00,0.004
782.00,0.004
783.00,0.004
784.00,0.004
785.00,0.004
786.00,0.004
787.00,0.004
788.00,0.004
789.00,0.003
790.00,0.003
791.00,0.003
792.00,0.003
793.00,0.003
794.00,0.003
795.00,0.003
796.00,0.003
797.00,0.003
798.00,0.002
799.00,0.002
800.00,0.002
801.00,0.002
802.00,0.002
803.00,0.002
804.00,0.002
805.00,0.002
806.00,0.002
807.00,0.002
808.00,0.002
809.00,0.002
810.00,0.002
811.00,0.002
812.00,0.002
813.00,0.002
814.00,0.002
815.00,0.002
816.00,0.002
817.00,0.002
818.00,0.002
819.00,0.002
820.00,0.003
821.00,0.003
822.00,0.003
823.00,0.003
824.00,0.004
825.00,0.004
826.00,0.004
827.00,0.005
828.00,0.005
829.00,0.006
830.00,0.006
831.00,0.007
832.00,0.007
833.00,0.008
834.00,0.008
835.00,0.008
836.00,0.009
837.00,0.009
838.00,0.009
839.00,0.009
840.00,0.009
841.00,0.009
842.00,0.009
843.00,0.010
844.00,0.010
845.00,0.010
846.00,0.010
847.00,0.010
848.00,0.010
849.00,0.010
850.00,0.010
851.00,0.011
852.00,0.011
853.00,0.011
854.00,0.011
855.00,0.011
856.00,0.011
857.00,0.011
858.00,0.011
859.00,0.011
860.00,0.011
861.00,0.012
862.00,0.012
863.00,0.012
864.00,0.012
865.00,0.012
866.00,0.012
867.00,0.012
868.00,0.012
869.00,0.013
870.00,0.013
871.00,0.013
872.00,0.013
873.00,0.013
874.00,0.014
875.00,0.014
876.00,0.014
877.00,0.014
878.00,0.014
879.00,0.015
880.00,0.015
881.00,0.015
882.00,0.015
883.00,0.016
884.00,0.016
885.00,0.016
886.00,0.016
887.00,0.017
888.00,0.017
889.00,0.017
890.00,0.017
891.00,0.017
892.00,0.018
893.00,0.018
894.00,0.018
895.00,0.018
896.00,0.019
897.00,0.019
898.00,0.019
899.00,0.019
900.00,0.020
