"LTMSaisonBrett50x - RawData"
"Wavelength nm.","Abs."
190.00,3.373
191.00,3.253
192.00,3.623
193.00,3.419
194.00,3.665
195.00,3.453
196.00,3.630
197.00,3.536
198.00,3.690
199.00,3.787
200.00,3.696
201.00,3.693
202.00,3.672
203.00,3.739
204.00,3.582
205.00,3.653
206.00,3.584
207.00,3.444
208.00,3.404
209.00,3.301
210.00,3.137
211.00,3.003
212.00,2.906
213.00,2.762
214.00,2.646
215.00,2.539
216.00,2.420
217.00,2.305
218.00,2.197
219.00,2.094
220.00,1.992
221.00,1.898
222.00,1.806
223.00,1.717
224.00,1.627
225.00,1.544
226.00,1.462
227.00,1.378
228.00,1.299
229.00,1.225
230.00,1.155
231.00,1.092
232.00,1.036
233.00,0.987
234.00,0.944
235.00,0.908
236.00,0.876
237.00,0.850
238.00,0.827
239.00,0.809
240.00,0.794
241.00,0.782
242.00,0.773
243.00,0.767
244.00,0.762
245.00,0.759
246.00,0.757
247.00,0.755
248.00,0.755
249.00,0.756
250.00,0.757
251.00,0.759
252.00,0.761
253.00,0.764
254.00,0.766
255.00,0.768
256.00,0.770
257.00,0.773
258.00,0.775
259.00,0.776
260.00,0.778
261.00,0.781
262.00,0.783
263.00,0.785
264.00,0.786
265.00,0.787
266.00,0.787
267.00,0.786
268.00,0.785
269.00,0.782
270.00,0.778
271.00,0.774
272.00,0.768
273.00,0.761
274.00,0.754
275.00,0.745
276.00,0.736
277.00,0.725
278.00,0.714
279.00,0.704
280.00,0.692
281.00,0.679
282.00,0.666
283.00,0.651
284.00,0.636
285.00,0.620
286.00,0.605
287.00,0.591
288.00,0.576
289.00,0.561
290.00,0.545
291.00,0.530
292.00,0.516
293.00,0.503
294.00,0.492
295.00,0.481
296.00,0.472
297.00,0.463
298.00,0.454
299.00,0.446
300.00,0.439
301.00,0.431
302.00,0.425
303.00,0.418
304.00,0.413
305.00,0.407
306.00,0.402
307.00,0.397
308.00,0.392
309.00,0.388
310.00,0.384
311.00,0.380
312.00,0.376
313.00,0.372
314.00,0.368
315.00,0.365
316.00,0.361
317.00,0.358
318.00,0.354
319.00,0.351
320.00,0.347
321.00,0.343
322.00,0.339
323.00,0.335
324.00,0.331
325.00,0.327
326.00,0.322
327.00,0.318
328.00,0.313
329.00,0.308
330.00,0.304
331.00,0.299
332.00,0.294
333.00,0.288
334.00,0.283
335.00,0.278
336.00,0.274
337.00,0.269
338.00,0.263
339.00,0.259
340.00,0.254
341.00,0.248
342.00,0.243
343.00,0.238
344.00,0.233
345.00,0.229
346.00,0.224
347.00,0.220
348.00,0.216
349.00,0.212
350.00,0.208
351.00,0.204
352.00,0.200
353.00,0.196
354.00,0.193
355.00,0.189
356.00,0.186
357.00,0.183
358.00,0.180
359.00,0.177
360.00,0.174
361.00,0.171
362.00,0.169
363.00,0.166
364.00,0.164
365.00,0.162
366.00,0.160
367.00,0.157
368.00,0.155
369.00,0.153
370.00,0.151
371.00,0.150
372.00,0.148
373.00,0.146
374.00,0.144
375.00,0.143
376.00,0.141
377.00,0.140
378.00,0.138
379.00,0.137
380.00,0.135
381.00,0.134
382.00,0.133
383.00,0.131
384.00,0.130
385.00,0.129
386.00,0.128
387.00,0.127
388.00,0.126
389.00,0.125
390.00,0.123
391.00,0.122
392.00,0.122
393.00,0.121
394.00,0.120
395.00,0.119
396.00,0.118
397.00,0.117
398.00,0.117
399.00,0.116
400.00,0.115
401.00,0.114
402.00,0.114
403.00,0.113
404.00,0.112
405.00,0.112
406.00,0.111
407.00,0.111
408.00,0.110
409.00,0.109
410.00,0.109
411.00,0.108
412.00,0.108
413.00,0.107
414.00,0.107
415.00,0.106
416.00,0.106
417.00,0.105
418.00,0.105
419.00,0.105
420.00,0.104
421.00,0.104
422.00,0.103
423.00,0.103
424.00,0.103
425.00,0.102
426.00,0.102
427.00,0.101
428.00,0.101
429.00,0.100
430.00,0.100
431.00,0.100
432.00,0.099
433.00,0.099
434.00,0.099
435.00,0.098
436.00,0.098
437.00,0.098
438.00,0.097
439.00,0.097
440.00,0.097
441.00,0.096
442.00,0.096
443.00,0.096
444.00,0.096
445.00,0.095
446.00,0.095
447.00,0.095
448.00,0.095
449.00,0.094
450.00,0.094
451.00,0.094
452.00,0.094
453.00,0.093
454.00,0.093
455.00,0.093
456.00,0.093
457.00,0.092
458.00,0.092
459.00,0.092
460.00,0.092
461.00,0.091
462.00,0.091
463.00,0.091
464.00,0.091
465.00,0.091
466.00,0.090
467.00,0.090
468.00,0.090
469.00,0.090
470.00,0.090
471.00,0.089
472.00,0.089
473.00,0.089
474.00,0.089
475.00,0.089
476.00,0.088
477.00,0.088
478.00,0.088
479.00,0.088
480.00,0.087
481.00,0.087
482.00,0.087
483.00,0.087
484.00,0.087
485.00,0.087
486.00,0.086
487.00,0.086
488.00,0.086
489.00,0.086
490.00,0.086
491.00,0.086
492.00,0.085
493.00,0.085
494.00,0.085
495.00,0.085
496.00,0.085
497.00,0.085
498.00,0.084
499.00,0.084
500.00,0.084
501.00,0.084
502.00,0.084
503.00,0.084
504.00,0.084
505.00,0.083
506.00,0.083
507.00,0.083
508.00,0.083
509.00,0.083
510.00,0.083
511.00,0.083
512.00,0.083
513.00,0.082
514.00,0.082
515.00,0.082
516.00,0.082
517.00,0.082
518.00,0.082
519.00,0.082
520.00,0.081
521.00,0.081
522.00,0.081
523.00,0.081
524.00,0.081
525.00,0.081
526.00,0.081
527.00,0.081
528.00,0.080
529.00,0.080
530.00,0.080
531.00,0.080
532.00,0.080
533.00,0.080
534.00,0.080
535.00,0.080
536.00,0.080
537.00,0.079
538.00,0.079
539.00,0.079
540.00,0.079
541.00,0.079
542.00,0.079
543.00,0.078
544.00,0.078
545.00,0.078
546.00,0.078
547.00,0.078
548.00,0.078
549.00,0.078
550.00,0.078
551.00,0.078
552.00,0.077
553.00,0.077
554.00,0.077
555.00,0.077
556.00,0.077
557.00,0.077
558.00,0.077
559.00,0.077
560.00,0.077
561.00,0.077
562.00,0.077
563.00,0.076
564.00,0.076
565.00,0.076
566.00,0.076
567.00,0.076
568.00,0.076
569.00,0.076
570.00,0.076
571.00,0.076
572.00,0.076
573.00,0.076
574.00,0.076
575.00,0.076
576.00,0.075
577.00,0.075
578.00,0.075
579.00,0.075
580.00,0.075
581.00,0.075
582.00,0.075
583.00,0.075
584.00,0.075
585.00,0.075
586.00,0.075
587.00,0.074
588.00,0.074
589.00,0.074
590.00,0.074
591.00,0.074
592.00,0.074
593.00,0.074
594.00,0.074
595.00,0.074
596.00,0.074
597.00,0.074
598.00,0.074
599.00,0.074
600.00,0.074
601.00,0.074
602.00,0.074
603.00,0.074
604.00,0.074
605.00,0.074
606.00,0.073
607.00,0.073
608.00,0.073
609.00,0.073
610.00,0.073
611.00,0.073
612.00,0.073
613.00,0.073
614.00,0.073
615.00,0.073
616.00,0.073
617.00,0.073
618.00,0.073
619.00,0.073
620.00,0.073
621.00,0.072
622.00,0.072
623.00,0.072
624.00,0.072
625.00,0.072
626.00,0.072
627.00,0.072
628.00,0.072
629.00,0.072
630.00,0.072
631.00,0.072
632.00,0.072
633.00,0.072
634.00,0.072
635.00,0.072
636.00,0.071
637.00,0.071
638.00,0.071
639.00,0.071
640.00,0.071
641.00,0.071
642.00,0.071
643.00,0.071
644.00,0.071
645.00,0.071
646.00,0.071
647.00,0.071
648.00,0.071
649.00,0.071
650.00,0.071
651.00,0.071
652.00,0.071
653.00,0.071
654.00,0.071
655.00,0.070
656.00,0.070
657.00,0.070
658.00,0.070
659.00,0.070
660.00,0.070
661.00,0.070
662.00,0.070
663.00,0.070
664.00,0.070
665.00,0.070
666.00,0.070
667.00,0.070
668.00,0.070
669.00,0.070
670.00,0.070
671.00,0.070
672.00,0.070
673.00,0.070
674.00,0.070
675.00,0.070
676.00,0.070
677.00,0.070
678.00,0.070
679.00,0.070
680.00,0.069
681.00,0.069
682.00,0.069
683.00,0.069
684.00,0.069
685.00,0.069
686.00,0.069
687.00,0.069
688.00,0.069
689.00,0.069
690.00,0.069
691.00,0.069
692.00,0.069
693.00,0.069
694.00,0.069
695.00,0.069
696.00,0.069
697.00,0.069
698.00,0.069
699.00,0.069
700.00,0.069
701.00,0.069
702.00,0.069
703.00,0.069
704.00,0.069
705.00,0.069
706.00,0.069
707.00,0.069
708.00,0.069
709.00,0.069
710.00,0.069
711.00,0.069
712.00,0.069
713.00,0.069
714.00,0.069
715.00,0.069
716.00,0.070
717.00,0.070
718.00,0.070
719.00,0.070
720.00,0.070
721.00,0.070
722.00,0.071
723.00,0.071
724.00,0.071
725.00,0.071
726.00,0.071
727.00,0.072
728.00,0.072
729.00,0.072
730.00,0.073
731.00,0.073
732.00,0.074
733.00,0.074
734.00,0.075
735.00,0.075
736.00,0.075
737.00,0.076
738.00,0.076
739.00,0.076
740.00,0.076
741.00,0.076
742.00,0.076
743.00,0.076
744.00,0.076
745.00,0.076
746.00,0.076
747.00,0.076
748.00,0.076
749.00,0.076
750.00,0.076
751.00,0.076
752.00,0.076
753.00,0.076
754.00,0.076
755.00,0.076
756.00,0.075
757.00,0.075
758.00,0.075
759.00,0.075
760.00,0.076
761.00,0.075
762.00,0.075
763.00,0.075
764.00,0.075
765.00,0.075
766.00,0.075
767.00,0.075
768.00,0.075
769.00,0.075
770.00,0.074
771.00,0.074
772.00,0.074
773.00,0.074
774.00,0.074
775.00,0.074
776.00,0.074
777.00,0.074
778.00,0.073
779.00,0.073
780.00,0.073
781.00,0.073
782.00,0.073
783.00,0.073
784.00,0.073
785.00,0.073
786.00,0.073
787.00,0.072
788.00,0.072
789.00,0.072
790.00,0.072
791.00,0.072
792.00,0.072
793.00,0.072
794.00,0.071
795.00,0.071
796.00,0.071
797.00,0.071
798.00,0.071
799.00,0.071
800.00,0.071
801.00,0.070
802.00,0.070
803.00,0.070
804.00,0.070
805.00,0.070
806.00,0.070
807.00,0.070
808.00,0.070
809.00,0.070
810.00,0.070
811.00,0.070
812.00,0.070
813.00,0.070
814.00,0.070
815.00,0.070
816.00,0.070
817.00,0.070
818.00,0.070
819.00,0.070
820.00,0.070
821.00,0.070
822.00,0.071
823.00,0.071
824.00,0.071
825.00,0.071
826.00,0.072
827.00,0.072
828.00,0.073
829.00,0.073
830.00,0.074
831.00,0.075
832.00,0.075
833.00,0.075
834.00,0.076
835.00,0.076
836.00,0.076
837.00,0.076
838.00,0.076
839.00,0.077
840.00,0.077
841.00,0.077
842.00,0.077
843.00,0.077
844.00,0.077
845.00,0.077
846.00,0.078
847.00,0.078
848.00,0.078
849.00,0.078
850.00,0.078
851.00,0.078
852.00,0.078
853.00,0.078
854.00,0.078
855.00,0.078
856.00,0.079
857.00,0.079
858.00,0.079
859.00,0.079
860.00,0.079
861.00,0.079
862.00,0.079
863.00,0.079
864.00,0.079
865.00,0.079
866.00,0.079
867.00,0.080
868.00,0.080
869.00,0.080
870.00,0.080
871.00,0.080
872.00,0.080
873.00,0.080
874.00,0.080
875.00,0.081
876.00,0.081
877.00,0.081
878.00,0.081
879.00,0.081
880.00,0.082
881.00,0.082
882.00,0.082
883.00,0.082
884.00,0.082
885.00,0.083
886.00,0.083
887.00,0.083
888.00,0.083
889.00,0.083
890.00,0.083
891.00,0.084
892.00,0.084
893.00,0.084
894.00,0.084
895.00,0.085
896.00,0.085
897.00,0.085
898.00,0.085
899.00,0.085
900.00,0.086
